# Filter[meter], probe 1, probe 2, probe3 [degree,bogenminuten]

1.06e-6    84  20   74 26   85 25   74 0   90 25   67 40
1.29e-6    80  50   74 8   82 38   73 30   86 20   70 5
1.45e-6    83  5   75 53   83 40   74 46   85 50   72 50
1.72e-6    80  0   74 6   82 0   71 20   82 15   73 0
1.96e-6    75  0   68 50   77 40   66 39   75 40   69 5
2.156e-6   73  20   67 28   76 0   64 0   73 25   68 0
2.34e-6    10  35   4 0   53 0   39 20   48 32   43 50
2.51e-6    25  45   26 30   28 35   22 40   24 4   28 25
2.65e-6    67  0   58 47   71 31   57 25   63 18   58 46